# La4Ni3O10 Ni L3 edge RIXS
# Room temperature
# RIXS resolution ~ 0.4 eV
# Horizontal scattering geometry, theta = 15 degrees, 2theta = 95 degrees
# SEXTANTS beamline, SOLEIL synchrotron
# Energy loss 	 Intensity
-45.537800        44.85
-45.458245       432.85
-45.378714       497.85
-45.299207       413.65
-45.219725       947.40
-45.140268      1238.10
-45.060835      1608.05
-44.981427      1316.00
-44.902043      1576.55
-44.822684      1306.35
-44.743350      1528.80
-44.664040       827.40
-44.584754      1174.70
-44.505493      1331.30
-44.426257      1283.05
-44.347045      1547.80
-44.267858      2153.85
-44.188695      1294.05
-44.109557       958.75
-44.030443      1171.40
-43.951354       902.60
-43.872289       611.05
-43.793249      1126.40
-43.714233       976.75
-43.635242      1659.60
-43.556276      2303.00
-43.477334      1434.60
-43.398416       102.10
-43.319524       687.95
-43.240655      1572.75
-43.161812      1509.70
-43.082992      1728.90
-43.004198      1751.40
-42.925427      1263.90
-42.846682       815.20
-42.767961      1406.40
-42.689264       991.65
-42.610592      1346.75
-42.531945       553.70
-42.453322       584.60
-42.374724       762.80
-42.296150       615.15
-42.217601       798.25
-42.139076      1028.25
-42.060576       728.60
-41.982100      1000.30
-41.903649      1336.35
-41.825222      1174.20
-41.746820       942.00
-41.668443      1225.00
-41.590090       822.15
-41.511761       952.65
-41.433458      1773.05
-41.355178       455.05
-41.276924        87.75
-41.198693       548.65
-41.120488       353.20
-41.042306       519.70
-40.964150       644.10
-40.886018       970.80
-40.807910      1102.05
-40.729827       796.85
-40.651769      1528.45
-40.573735      1832.95
-40.495726      1547.85
-40.417741      1000.40
-40.339780      1338.35
-40.261845      1049.25
-40.183933      1874.40
-40.106047       842.15
-40.028185       999.50
-39.950347      1337.40
-39.872534      1899.85
-39.794746      1240.80
-39.716982      1296.75
-39.639242      1341.80
-39.561527      1526.40
-39.483837      1458.85
-39.406171      1185.45
-39.328530       614.50
-39.250913       549.45
-39.173321      1029.15
-39.095754      1225.05
-39.018210       940.20
-38.940692      1420.50
-38.863198      1602.80
-38.785728      1069.25
-38.708284      1422.25
-38.630863      1055.80
-38.553467       778.10
-38.476096       999.90
-38.398749      1177.90
-38.321427      1354.55
-38.244129      1202.35
-38.166856       657.65
-38.089608       155.45
-38.012384       837.90
-37.935184       550.70
-37.858009       966.90
-37.780859       852.25
-37.703733      1699.50
-37.626632      1509.20
-37.549555      1726.10
-37.472503      1405.70
-37.395475      1561.00
-37.318472      1312.20
-37.241493      1842.60
-37.164539      1243.40
-37.087609      1545.45
-37.010704       515.75
-36.933824       867.20
-36.856968       976.25
-36.780137      1065.20
-36.703330      1808.25
-36.626547      1417.95
-36.549790       454.20
-36.473057      1047.35
-36.396348      1539.20
-36.319664      1605.30
-36.243004      1020.60
-36.166369      1502.40
-36.089759      1443.80
-36.013173      1587.25
-35.936611      1559.10
-35.860074      1188.90
-35.783562       584.45
-35.707074       535.65
-35.630611       488.90
-35.554172       609.50
-35.477758       928.60
-35.401368       878.80
-35.325003      1179.40
-35.248663       940.85
-35.172347      1029.00
-35.096055      1819.65
-35.019788      1941.25
-34.943546      1592.35
-34.867328      1665.60
-34.791135      1647.05
-34.714966      2078.00
-34.638822      1147.20
-34.562702       950.60
-34.486607       857.40
-34.410536       128.85
-34.334490       894.10
-34.258469      1193.50
-34.182472      1176.65
-34.106499       545.90
-34.030551       915.20
-33.954628      1014.95
-33.878729       893.00
-33.802855      1077.90
-33.727005      1345.20
-33.651180      1730.60
-33.575379      1265.40
-33.499603       771.25
-33.423852       796.55
-33.348125      2217.45
-33.272422      2004.80
-33.196744       923.60
-33.121091      1040.00
-33.045462      1168.65
-32.969858      1550.45
-32.894278      1068.65
-32.818723      1629.90
-32.743192      1775.85
-32.667686      1616.35
-32.592204      1532.45
-32.516747      2007.40
-32.441315      1468.90
-32.365907      2269.90
-32.290523      2460.65
-32.215164      2161.80
-32.139830      1532.95
-32.064520      1613.10
-31.989235      1365.60
-31.913974      1632.95
-31.838738      1414.65
-31.763526      1595.00
-31.688339       928.80
-31.613177       649.55
-31.538039      1074.20
-31.462925      1536.95
-31.387836       836.65
-31.312772      1722.95
-31.237732      1724.30
-31.162717      1974.35
-31.087726      1163.80
-31.012760      1277.65
-30.937818      1616.45
-30.862901      1407.25
-30.788008      1176.55
-30.713140      2155.25
-30.638296      2113.15
-30.563477      2256.00
-30.488683      1260.95
-30.413913      1477.70
-30.339168      1584.50
-30.264447      2471.15
-30.189751      2448.25
-30.115079      2135.30
-30.040432      1722.70
-29.965809       938.55
-29.891211       736.90
-29.816637      1822.20
-29.742088      1620.90
-29.667564      1181.10
-29.593064      2443.10
-29.518588      2023.05
-29.444137      1544.20
-29.369711      1303.20
-29.295309      1498.25
-29.220932      2046.15
-29.146579      1899.00
-29.072251      1951.80
-28.997948      1713.55
-28.923669      2227.20
-28.849414      1920.95
-28.775184      1326.85
-28.700979      1150.25
-28.626798      1711.05
-28.552641      1730.35
-28.478509      1535.25
-28.404402      1709.15
-28.330319      1646.45
-28.256261      1128.40
-28.182227      1146.55
-28.108218       942.65
-28.034234      1310.40
-27.960274       958.80
-27.886338       866.80
-27.812427       983.60
-27.738541       985.95
-27.664679      1144.60
-27.590842      1071.30
-27.517029      1037.25
-27.443240      1179.95
-27.369477      1325.30
-27.295738      1493.45
-27.222023      2306.45
-27.148333      1925.05
-27.074667      1754.00
-27.001026      1289.35
-26.927410      1350.25
-26.853818      1453.20
-26.780251      2412.70
-26.706708       970.75
-26.633189      1074.65
-26.559696      1734.55
-26.486226      1537.85
-26.412782      1286.55
-26.339362      1088.40
-26.265966      1925.30
-26.192595      1073.90
-26.119248       622.55
-26.045926      1294.75
-25.972629      1526.30
-25.899356      1315.20
-25.826108       443.55
-25.752884       587.90
-25.679685      1623.60
-25.606510      2467.90
-25.533360      1046.35
-25.460234       793.40
-25.387133      1314.65
-25.314056       968.50
-25.241004      1456.25
-25.167977      2111.60
-25.094974      1267.60
-25.021996      2113.10
-24.949042      1500.50
-24.876112       961.75
-24.803208      1025.15
-24.730327      1342.20
-24.657472      1524.10
-24.584641      1221.45
-24.511834       506.65
-24.439052       688.10
-24.366294       762.75
-24.293561      1929.05
-24.220853      1263.65
-24.148169      1559.75
-24.075510      1662.40
-24.002875      1152.70
-23.930265      1097.10
-23.857679       707.40
-23.785118       598.90
-23.712581      1222.05
-23.640069      1141.15
-23.567581      1259.70
-23.495118       930.85
-23.422680       566.60
-23.350266      1262.60
-23.277876       638.75
-23.205512       481.50
-23.133171      1027.65
-23.060856      1261.40
-22.988564      1288.35
-22.916298      1437.30
-22.844055      1707.30
-22.771838      1674.50
-22.699645       992.50
-22.627476      1387.50
-22.555332       843.40
-22.483213       895.00
-22.411118       653.85
-22.339047      1629.70
-22.267002      1394.40
-22.194980      1270.55
-22.122984       487.20
-22.051011      -114.55
-21.979064       578.05
-21.907141       692.40
-21.835242       -30.10
-21.763368       -27.45
-21.691519       721.20
-21.619694      1454.05
-21.547893       985.50
-21.476117       734.55
-21.404366       513.20
-21.332639       853.00
-21.260937      1127.90
-21.189259      1001.10
-21.117606       705.00
-21.045977       169.80
-20.974373      -798.35
-20.902794      -100.45
-20.831239       222.90
-20.759708      1542.15
-20.688202      1286.40
-20.616721       559.50
-20.545264       367.80
-20.473832       829.25
-20.402424       499.65
-20.331041       751.80
-20.259682       751.40
-20.188348      1307.65
-20.117039       770.35
-20.045754       519.10
-19.974493       803.05
-19.903257      1605.20
-19.832046      1679.85
-19.760859      1340.30
-19.689696       736.55
-19.618559      1038.80
-19.547445       940.45
-19.476357      1124.35
-19.405292      1046.90
-19.334253       751.70
-19.263238       384.15
-19.192247       731.45
-19.121281       288.15
-19.050340       347.45
-18.979423      1487.90
-18.908530      1041.45
-18.837663        92.80
-18.766819       439.85
-18.696001       464.00
-18.625206       196.30
-18.554437       640.85
-18.483691      1272.80
-18.412971       520.40
-18.342275       473.10
-18.271603        61.10
-18.200956       253.75
-18.130334       308.45
-18.059736      1418.70
-17.989163       828.90
-17.918614       216.00
-17.848090       547.80
-17.777590       997.60
-17.707115       738.55
-17.636664        36.80
-17.566238      -176.75
-17.495836      -710.00
-17.425459      -164.05
-17.355107       546.70
-17.284779       475.75
-17.214476       332.55
-17.144197       461.80
-17.073942       375.90
-17.003713       880.15
-16.933507      1498.00
-16.863327      1197.75
-16.793171      1328.05
-16.723039       972.40
-16.652932       239.50
-16.582849       481.35
-16.512791      1494.15
-16.442758      1103.85
-16.372749       781.70
-16.302765       744.95
-16.232805      1386.90
-16.162870      1030.95
-16.092959        64.25
-16.023073      1021.20
-15.953211      1084.85
-15.883374       532.60
-15.813561       402.65
-15.743773      1758.40
-15.674010       512.55
-15.604271       807.20
-15.534557       836.80
-15.464867       814.30
-15.395201       796.35
-15.325561      1363.30
-15.255944      1497.10
-15.186353      1429.90
-15.116785      1610.50
-15.047243      1533.60
-14.977725      1438.75
-14.908231       238.30
-14.838762       797.95
-14.769318       299.50
-14.699898       517.65
-14.630503      1208.75
-14.561132      1678.50
-14.491785      1286.15
-14.422464       668.35
-14.353166       556.40
-14.283894      1970.15
-14.214646      1038.60
-14.145422      1554.60
-14.076223      1733.30
-14.007049      1506.45
-13.937899       -49.30
-13.868773       741.80
-13.799672      1250.90
-13.730596      1693.95
-13.661544      1985.65
-13.592517      1687.95
-13.523514       659.45
-13.454536       790.90
-13.385583       874.20
-13.316653      1025.05
-13.247749       807.30
-13.178869      1234.80
-13.110013      1237.10
-13.041183       833.95
-12.972376       564.05
-12.903594      1628.40
-12.834837       505.95
-12.766104       393.05
-12.697396      1672.15
-12.628712      1862.40
-12.560053       539.45
-12.491419      1122.00
-12.422809       441.25
-12.354223      1539.55
-12.285662      1949.40
-12.217126      1445.75
-12.148614       807.85
-12.080127      1333.40
-12.011664      1480.40
-11.943225      2001.85
-11.874812       442.35
-11.806423       402.45
-11.738058       924.70
-11.669718       996.85
-11.601402       815.30
-11.533111      2040.15
-11.464845      1313.95
-11.396603       935.45
-11.328386       938.05
-11.260193      1536.35
-11.192024       778.40
-11.123881       843.85
-11.055761       775.15
-10.987667      1233.05
-10.919597       925.00
-10.851551      2031.55
-10.783530      1658.60
-10.715533      1158.30
-10.647562      1009.90
-10.579614       986.90
-10.511691      1550.35
-10.443793      2236.00
-10.375919      2099.50
-10.308070      1257.55
-10.240245      1721.25
-10.172445      1573.35
-10.104669      1996.40
-10.036918      1961.90
-9.969192       1825.75
-9.901490       2656.25
-9.833812       2358.25
-9.766159       1701.60
-9.698531       1946.55
-9.630927       1915.80
-9.563348       1886.05
-9.495793       1745.75
-9.428263       1342.10
-9.360757       1914.50
-9.293276       2215.95
-9.225819       3132.85
-9.158387       2344.75
-9.090980        967.35
-9.023597       1219.65
-8.956238       1476.60
-8.888904       1636.75
-8.821595       1995.45
-8.754310       1306.15
-8.687050        504.75
-8.619814       1623.15
-8.552603       1793.15
-8.485416       1214.75
-8.418254       1223.55
-8.351117       1704.95
-8.284004       1876.95
-8.216915       1662.90
-8.149851       1486.00
-8.082812       2013.65
-8.015797       2262.20
-7.948807       1997.50
-7.881841       2055.70
-7.814900       1939.05
-7.747983       1666.65
-7.681091       1051.90
-7.614223       1567.10
-7.547380       1539.00
-7.480562       1942.65
-7.413768       1107.50
-7.346998        570.80
-7.280253       1760.35
-7.213533       2062.30
-7.146837       1886.95
-7.080166       1561.40
-7.013519       2162.60
-6.946897       1935.05
-6.880299       1754.10
-6.813726       1794.45
-6.747177       1853.90
-6.680653       2246.55
-6.614154       2479.45
-6.547679       2470.05
-6.481229       1761.75
-6.414803       2283.90
-6.348401       2755.65
-6.282025       1985.75
-6.215672       1900.90
-6.149345       1898.60
-6.083041       2841.05
-6.016763       2460.05
-5.950509       1984.35
-5.884279       2475.80
-5.818074       1864.20
-5.751894        983.10
-5.685738       2593.05
-5.619607       2401.00
-5.553500       1657.20
-5.487417       1343.40
-5.421360       1966.45
-5.355326       2174.55
-5.289318       1913.20
-5.223334       1254.45
-5.157374       2267.25
-5.091439       2441.50
-5.025529       1702.50
-4.959643       2285.60
-4.893781       1692.05
-4.827944       2066.00
-4.762132       1309.45
-4.696344       1409.95
-4.630581       1899.95
-4.564842       2608.35
-4.499128       1872.05
-4.433438       1471.55
-4.367773       1111.40
-4.302133       2557.20
-4.236517       2465.95
-4.170925       2013.20
-4.105358       1816.15
-4.039816       2421.15
-3.974298       1843.50
-3.908805       1614.30
-3.843336       1201.60
-3.777892        894.90
-3.712472       1858.70
-3.647077       2685.55
-3.581706       2241.05
-3.516360       1397.65
-3.451039       1156.75
-3.385742       1718.65
-3.320470       2132.10
-3.255222       2797.00
-3.189998       2018.25
-3.124799       2121.85
-3.059625       2530.85
-2.994476       1464.00
-2.929350        755.35
-2.864250       2129.55
-2.799174       2501.70
-2.734122       2161.50
-2.669095       1934.00
-2.604093       2985.85
-2.539115       2024.00
-2.474161       2400.55
-2.409232       2732.70
-2.344328       2690.30
-2.279448       2267.45
-2.214593       2795.55
-2.149762       2718.30
-2.084956       2124.50
-2.020175       2095.25
-1.955418       2836.25
-1.890685       2641.20
-1.825977       2729.85
-1.761294       2422.05
-1.696635       2185.05
-1.632000       1536.25
-1.567391       1907.35
-1.502805       2112.55
-1.438245       2505.60
-1.373708       2962.65
-1.309197       2819.80
-1.244710       3012.15
-1.180247       3434.85
-1.115809       3285.45
-1.051396       2943.85
-0.987007       2473.75
-0.922642       2340.45
-0.858302       2166.15
-0.793987       3220.25
-0.729696       3536.65
-0.665430       4247.25
-0.601188       3822.05
-0.536971       4047.55
-0.472779       4628.30
-0.408611       5791.75
-0.344467       6447.40
-0.280348       5905.20
-0.216254       6798.55
-0.152184       9369.55
-0.088138      11329.25
-0.024118      12181.70
 0.039879      14596.60
 0.103850      16720.70
 0.167798      17684.35
 0.231720      18330.05
 0.295618      20146.10
 0.359492      18776.85
 0.423341      20571.45
 0.487165      22413.70
 0.550965      26131.05
 0.614741      31800.15
 0.678492      38357.90
 0.742218      45358.40
 0.805920      53741.05
 0.869597      63389.55
 0.933250      73571.65
 0.996878      82206.85
 1.060482      88734.15
 1.124061      93210.65
 1.187615     100096.65
 1.251145     104108.25
 1.314651     106096.75
 1.378131     107914.05
 1.441588     106621.45
 1.505020     107525.20
 1.568427     112237.50
 1.631810     116413.45
 1.695168     122247.05
 1.758502     127427.25
 1.821811     129964.75
 1.885095     135431.60
 1.948355     138628.55
 2.011591     138884.95
 2.074802     139825.30
 2.137988     142202.30
 2.201150     138687.45
 2.264287     138249.40
 2.327400     137496.90
 2.390488     137250.60
 2.453552     138789.05
 2.516591     133179.00
 2.579606     129590.95
 2.642596     133500.70
 2.705562     137310.70
 2.768503     133975.10
 2.831419     133338.75
 2.894311     138210.45
 2.957178     137803.45
 3.020021     142498.50
 3.082839     146084.60
 3.145633     150136.30
 3.208402     149699.35
 3.271147     154737.70
 3.333867     163613.15
 3.396563     166719.15
 3.459234     171047.35
 3.521880     177735.70
 3.584502     181887.80
 3.647100     185073.20
 3.709673     187675.50
 3.772221     188137.85
 3.834745     187416.35
 3.897244     182233.75
 3.959719     180924.70
 4.022169     180864.25
 4.084595     179095.60
 4.146996     175321.80
 4.209372     171564.35
 4.271724     169780.50
 4.334052     167371.85
 4.396355     167941.50
 4.458633     160634.15
 4.520887     156109.90
 4.583116     149459.60
 4.645321     144587.85
 4.707501     144819.85
 4.769657     141754.45
 4.831788     140267.65
 4.893895     137736.35
 4.955977     133560.95
 5.018034     132318.90
 5.080067     130112.95
 5.142076     127996.75
 5.204059     127802.75
 5.266019     123297.50
 5.327954     121382.10
 5.389864     121928.15
 5.451750     116333.10
 5.513611     113844.30
 5.575447     115964.75
 5.637260     115067.40
 5.699047     112886.95
 5.760810     112451.00
 5.822549     109604.20
 5.884263     109647.05
 5.945952     105071.40
 6.007617     100514.45
 6.069257      99631.50
 6.130873      99581.60
 6.192464      96932.55
 6.254031      96542.30
 6.315573      96384.35
 6.377091      93102.05
 6.438584      87471.45
 6.500052      83419.20
 6.561496      82987.80
 6.622916      83185.15
 6.684310      82579.55
 6.745681      79859.70
 6.807027      75865.15
 6.868348      75076.15
 6.929645      73591.25
 6.990917      70924.90
 7.052164      73300.10
 7.113388      72761.25
 7.174586      71454.60
 7.235760      69097.65
 7.296910      67493.50
 7.358035      67654.95
 7.419135      64635.80
 7.480211      62218.90
 7.541262      59719.55
 7.602289      61259.30
 7.663291      61426.90
 7.724269      59465.15
 7.785222      55234.05
 7.846151      53404.00
 7.907055      52244.90
 7.967934      51559.15
 8.028789      51455.90
 8.089620      52137.85
 8.150426      50117.25
 8.211207      47504.60
 8.271964      46253.70
 8.332696      46612.70
 8.393404      44369.00
 8.454087      43919.05
 8.514746      43941.85
 8.575380      42395.00
 8.635989      40421.10
 8.696574      41125.00
 8.757135      40112.45
 8.817671      38563.00
 8.878182      37611.65
 8.938669      36273.10
 8.999131      33391.50
 9.059569      32240.50
 9.119983      32741.55
 9.180371      32661.70
 9.240735      33414.20
 9.301075      33600.30
 9.361390      30168.00
 9.421681      29885.45
 9.481947      31106.35
 9.542188      30855.35
 9.602405      29170.20
 9.662597      27636.85
 9.722765      27160.15
 9.782909      26171.35
 9.843027      26492.35
 9.903121      26333.80
 9.963191      24331.60
 10.023236     23545.00
 10.083257     23731.95
 10.143253     23344.95
 10.203224     22600.10
 10.263171     23178.95
 10.323094     22392.45
 10.382992     22401.15
 10.442865     23285.10
 10.502714     23214.30
 10.562538     22649.05
 10.622338     23038.30
 10.682113     22095.20
 10.741864     21962.20
 10.801590     21776.25
 10.861291     23247.85
 10.920968     23013.90
 10.980621     21294.10
 11.040249     20879.80
 11.099852     21374.90
 11.159431     20633.80
 11.218985     21283.40
 11.278515     21333.95
 11.338020     18869.00
 11.397501     17783.15
 11.456957     19050.20
 11.516389     18526.70
 11.575796     18159.60
 11.635178     17473.70
