# La4Ni3O10 Ni L3 edge RIXS
# Room temperature
# RIXS resolution ~ 0.4 eV
# Horizontal scattering geometry, theta = 15 degrees, 2theta = 95 degrees
# SEXTANTS beamline, SOLEIL synchrotron
# Energy loss 	 Intensity
-45.560392      -126.45
-45.480836       165.10
-45.401305       221.95
-45.321799       240.15
-45.242317       580.85
-45.162860       966.75
-45.083427       984.45
-45.004019      1105.20
-44.924635      1222.20
-44.845276      1484.25
-44.765941      1719.45
-44.686631      1035.95
-44.607346       885.05
-44.528085      1124.50
-44.448848      1700.90
-44.369636      1446.85
-44.290449      1244.30
-44.211286       782.05
-44.132148      1051.60
-44.053034      1326.00
-43.973945      1009.50
-43.894880       728.65
-43.815840      1417.90
-43.736825      1458.30
-43.657834      1875.55
-43.578867      1731.10
-43.499925       799.80
-43.421008       -15.15
-43.342115       756.30
-43.263247      1470.40
-43.184403      1339.65
-43.105584      1454.75
-43.026789      1579.20
-42.948019      1302.15
-42.869273      1126.95
-42.790552      1373.05
-42.711856      1030.65
-42.633184       509.05
-42.554536       536.90
-42.475913       664.65
-42.397315       981.30
-42.318741      1476.05
-42.240192      1555.50
-42.161667      1260.65
-42.083167      1054.75
-42.004691      1248.40
-41.926240      1849.60
-41.847814      2225.70
-41.769412      1536.10
-41.691034       979.95
-41.612681       994.95
-41.534353       543.05
-41.456049       523.00
-41.377770       302.30
-41.299515        12.95
-41.221285       685.10
-41.143079       702.00
-41.064898       803.60
-40.986741      1019.30
-40.908609       730.60
-40.830502       804.50
-40.752419      1220.80
-40.674360      1286.00
-40.596326      1416.00
-40.518317      1075.20
-40.440332       579.55
-40.362372       988.10
-40.284436      1246.45
-40.206525      1205.90
-40.128638      1086.85
-40.050776      1506.40
-39.972939      1511.50
-39.895126      1510.50
-39.817337      1229.15
-39.739573      1621.90
-39.661834      1704.30
-39.584119      2002.60
-39.506428      1332.05
-39.428763      1129.60
-39.351121       920.70
-39.273505       873.60
-39.195913       758.55
-39.118345      1222.85
-39.040802       978.95
-38.963283      1404.90
-38.885789      1505.20
-38.808320      1008.65
-38.730875      1090.20
-38.653455      1080.05
-38.576059       494.95
-38.498687       585.05
-38.421341       567.80
-38.344019      1019.20
-38.266721      1060.60
-38.189448       598.25
-38.112199       296.60
-38.034975       987.55
-37.957776       635.20
-37.880601      1457.70
-37.803450      1590.10
-37.726324      1676.15
-37.649223      1487.40
-37.572146      1826.85
-37.495094      1505.45
-37.418066      1977.05
-37.341063      1898.20
-37.264084      1627.85
-37.187130      1166.20
-37.110201      1413.55
-37.033296      1337.50
-36.956415      1009.85
-36.879559      1559.80
-36.802728      1148.80
-36.725921      1569.05
-36.649139      1421.20
-36.572381      1359.60
-36.495648      1583.60
-36.418939      1582.85
-36.342255      1488.35
-36.265596      1788.65
-36.188960      1549.80
-36.112350      2057.05
-36.035764      1903.55
-35.959203      1734.75
-35.882666      1609.15
-35.806153      1214.45
-35.729666       954.65
-35.653202      1128.35
-35.576764      1191.50
-35.500349      1792.25
-35.423960      1567.70
-35.347595      1350.95
-35.271254      1257.50
-35.194938      1618.20
-35.118647      2028.85
-35.042380      2078.35
-34.966137      1568.25
-34.889919      1720.15
-34.813726      2056.35
-34.737557      2140.00
-34.661413      1593.40
-34.585293      1078.00
-34.509198      1129.65
-34.433128       666.00
-34.357082      1603.70
-34.281060      1658.50
-34.205063      1552.50
-34.129091       873.20
-34.053143      1086.25
-33.977219       778.25
-33.901321      1071.65
-33.825446      1265.25
-33.749597      1859.45
-33.673771      1447.10
-33.597971      1314.05
-33.522195      1295.75
-33.446443      1201.25
-33.370716      1552.55
-33.295014      1615.70
-33.219336       735.55
-33.143682      1460.70
-33.068053      1677.95
-32.992449      1884.65
-32.916869      1882.45
-32.841314      1892.60
-32.765783      1363.20
-32.690277      1927.35
-32.614796      1928.25
-32.539339      2222.25
-32.463906      2050.15
-32.388498      2580.00
-32.313115      1824.90
-32.237756      1683.45
-32.162421      1299.00
-32.087112      1140.10
-32.011826      1364.80
-31.936566      1434.15
-31.861329      1090.30
-31.786118      1549.60
-31.710931      1415.10
-31.635768      1592.55
-31.560630      1553.30
-31.485517      2377.60
-31.410428      2145.00
-31.335363      2241.80
-31.260323      1803.30
-31.185308      2111.40
-31.110317      1808.40
-31.035351      1941.05
-30.960409      2462.70
-30.885492      2620.00
-30.810599      1839.85
-30.735731      2502.55
-30.660888      2519.90
-30.586069      2205.75
-30.511274      1590.20
-30.436505      1625.30
-30.361759      1820.60
-30.287038      2236.40
-30.212342      1914.50
-30.137670      1257.75
-30.063023      1345.70
-29.988400      1691.25
-29.913802      1595.10
-29.839229      1851.60
-29.764680      1750.05
-29.690155      1440.65
-29.615655      2089.20
-29.541180      1887.45
-29.466729      1296.60
-29.392303      1737.50
-29.317901      1756.50
-29.243524      1992.05
-29.169171      1971.75
-29.094843      2533.60
-29.020539      1903.05
-28.946260      1792.25
-28.872005      1898.65
-28.797775      2041.20
-28.723570      1852.85
-28.649389      1998.00
-28.575233      1703.15
-28.501101      1764.55
-28.426994      1834.55
-28.352911      1914.70
-28.278853      1436.75
-28.204819      1317.50
-28.130810       897.75
-28.056825       852.20
-27.982865       906.95
-27.908930      1241.85
-27.835019      1421.30
-27.761132      1155.85
-27.687270      1446.30
-27.613433      1382.95
-27.539620      1309.10
-27.465832      1443.40
-27.392068      1642.85
-27.318329      2130.75
-27.244614      2659.05
-27.170924      2459.50
-27.097259      2394.15
-27.023618      1774.20
-26.950001      2312.55
-26.876409      2246.45
-26.802842      2666.85
-26.729299      1919.95
-26.655781      2004.45
-26.582287      2185.20
-26.508818      1923.00
-26.435373      1544.30
-26.361953      1446.90
-26.288557      1793.40
-26.215186      1383.45
-26.141840      1093.50
-26.068518      1694.05
-25.995220      1486.85
-25.921948      1494.40
-25.848699      1194.25
-25.775475      1612.20
-25.702276      1924.35
-25.629101      1981.45
-25.555951      1652.30
-25.482826      1146.25
-25.409724      1253.00
-25.336648      1845.35
-25.263596      2042.00
-25.190568      2402.20
-25.117565      1892.60
-25.044587      2231.30
-24.971633      2144.90
-24.898704      1628.20
-24.825799      2206.05
-24.752919      2144.85
-24.680063      1699.65
-24.607232      1836.75
-24.534425      1170.05
-24.461643      1115.85
-24.388886      1603.70
-24.316153      2409.85
-24.243444      2034.30
-24.170761      1727.20
-24.098101      1897.90
-24.025466      1686.45
-23.952856      1591.00
-23.880270      1671.40
-23.807709      1549.35
-23.735172      1619.15
-23.662660      1550.35
-23.590173      1446.30
-23.517710      1529.45
-23.445271      1432.25
-23.372857      1833.50
-23.300468      1561.10
-23.228103      1097.10
-23.155763      1232.15
-23.083447      1633.70
-23.011156      1990.50
-22.938889      2322.80
-22.866647      1747.35
-22.794429      1260.55
-22.722236       923.70
-22.650068       907.60
-22.577924       738.80
-22.505804      1275.45
-22.433709      1168.30
-22.361639      1305.80
-22.289593      1500.15
-22.217572      1308.85
-22.145575      1194.05
-22.073603       727.60
-22.001655      1208.15
-21.929732      1367.30
-21.857834      1127.95
-21.785959      1339.95
-21.714110      1493.05
-21.642285      1781.10
-21.570485      1861.00
-21.498709       950.15
-21.426957       924.10
-21.355231      1296.40
-21.283528      1346.65
-21.211851      1256.50
-21.140197       914.90
-21.068569      1034.00
-20.996965        42.30
-20.925385       600.95
-20.853830       974.05
-20.782300      1749.10
-20.710794      1206.10
-20.639312      1062.70
-20.567856      1155.35
-20.496423      1452.50
-20.425016      1232.05
-20.353632      1814.95
-20.282274      1548.25
-20.210940      1756.75
-20.139630      1560.55
-20.068345      1759.05
-19.997084      1949.15
-19.925848      2105.35
-19.854637      1746.35
-19.783450      1276.00
-19.712288      1410.60
-19.641150      1847.50
-19.570037      1878.90
-19.498948      1447.15
-19.427884      1009.20
-19.356844       865.45
-19.285829      1083.10
-19.214839      1371.15
-19.143873      1113.70
-19.072931      1189.35
-19.002014      1325.85
-18.931122       824.95
-18.860254       606.20
-18.789411      1437.75
-18.718592      1319.85
-18.647798       832.35
-18.577028       857.65
-18.506283      1184.15
-18.435562       757.10
-18.364866      1051.80
-18.294195       825.50
-18.223548       939.90
-18.152925      1219.35
-18.082327      1566.95
-18.011754      1619.35
-17.941205      1259.10
-17.870681      1245.95
-17.800181      1591.60
-17.729706      1676.05
-17.659255      1568.70
-17.588829       886.10
-17.518428       384.75
-17.448051       926.50
-17.377698       874.05
-17.307370       888.00
-17.237067       900.80
-17.166788       924.70
-17.096534      1450.95
-17.026304      1714.20
-16.956099      1793.10
-16.885918      1354.50
-16.815762      1318.75
-16.745630      1237.80
-16.675523      1367.40
-16.605441      1197.90
-16.535383      1523.60
-16.465349      1095.15
-16.395340       953.15
-16.325356      1131.95
-16.255396      1496.55
-16.185461      1732.90
-16.115550       848.95
-16.045664       970.00
-15.975802       877.90
-15.905965      1205.80
-15.836153      1456.70
-15.766365      1416.20
-15.696601      1253.15
-15.626862      1459.00
-15.557148      1698.10
-15.487458      1400.00
-15.417793      1640.10
-15.348152      1627.10
-15.278536      1381.65
-15.208944      1183.30
-15.139377      1863.00
-15.069834      1047.50
-15.000316       786.90
-14.930823       962.35
-14.861354      1105.15
-14.791909      1290.80
-14.722489      1460.25
-14.653094      1931.10
-14.583723      2080.95
-14.514377      1529.40
-14.445055      1343.75
-14.375758      1024.90
-14.306485      1599.90
-14.237237      1308.80
-14.168014      2037.15
-14.098815      2277.65
-14.029640      1309.20
-13.960490       781.00
-13.891365      1326.00
-13.822264      1901.10
-13.753187      1974.75
-13.684136      2092.70
-13.615108      1766.75
-13.546106       848.85
-13.477128       728.45
-13.408174      1052.20
-13.339245      1450.45
-13.270340      1419.40
-13.201460      2120.00
-13.132605      1710.60
-13.063774      1059.40
-12.994968       798.95
-12.926186      1562.00
-12.857428      1645.50
-12.788696      2101.60
-12.719988      2083.45
-12.651304      2508.15
-12.582645      1700.60
-12.514010      1922.75
-12.445400      1958.95
-12.376815      2058.80
-12.308254      1843.65
-12.239717      1952.55
-12.171205      1321.85
-12.102718      2018.45
-12.034255      1980.10
-11.965817      1927.60
-11.897403      1272.10
-11.829014      1735.20
-11.760649      2072.80
-11.692309      1756.25
-11.623994      1224.10
-11.555703      2123.45
-11.487436      1795.90
-11.419194      2050.15
-11.350977      1851.20
-11.282784      1914.00
-11.214616      2013.65
-11.146472      2147.55
-11.078353      1064.55
-11.010258      1977.50
-10.942188      2320.15
-10.874142      2575.05
-10.806121      2344.75
-10.738125      2412.60
-10.670153      2110.05
-10.602206      1712.80
-10.534283      1849.70
-10.466384      2305.60
-10.398510      2484.25
-10.330661      1685.50
-10.262836      1853.25
-10.195036      2330.40
-10.127261      2567.25
-10.059510      2552.90
-9.991783       2534.80
-9.924081       2615.65
-9.856404       2667.65
-9.788751       1876.85
-9.721122       2053.60
-9.653518       2341.20
-9.585939       2098.75
-9.518384       2267.60
-9.450854       2159.75
-9.383348       2350.80
-9.315867       3023.35
-9.248411       2694.10
-9.180979       2078.30
-9.113571       1142.55
-9.046188       1719.05
-8.978830       2279.85
-8.911496       2101.65
-8.844186       2298.30
-8.776902       1398.85
-8.709641       1536.35
-8.642406       2552.80
-8.575194       2169.40
-8.508008       2101.80
-8.440846       2431.80
-8.373708       2506.75
-8.306595       1924.85
-8.239507       2175.35
-8.172443       1948.35
-8.105403       2456.00
-8.038388       2730.00
-7.971398       2480.90
-7.904432       2213.35
-7.837491       1850.70
-7.770574       1712.35
-7.703682       1374.20
-7.636815       2296.10
-7.569971       2631.80
-7.503153       1875.95
-7.436359       1384.20
-7.369590        988.50
-7.302845       2012.80
-7.236124       2354.80
-7.169428       2266.70
-7.102757       2419.45
-7.036110       2457.05
-6.969488       2940.05
-6.902891       2706.55
-6.836317       2264.35
-6.769769       2179.75
-6.703245       2484.05
-6.636745       2905.55
-6.570270       3034.00
-6.503820       2885.45
-6.437394       2546.05
-6.370993       3048.15
-6.304616       2809.25
-6.238264       2990.00
-6.171936       3001.00
-6.105633       3286.55
-6.039354       3161.90
-5.973100       2517.15
-5.906871       2515.20
-5.840666       2777.20
-5.774485       1967.05
-5.708329       2631.80
-5.642198       2766.15
-5.576091       2367.25
-5.510009       2153.60
-5.443951       3000.15
-5.377918       2741.55
-5.311909       2691.40
-5.245925       2867.70
-5.179966       3589.90
-5.114030       3287.15
-5.048120       2349.25
-4.982234       2649.15
-4.916373       2584.20
-4.850536       2774.85
-4.784723       2408.70
-4.718936       2151.45
-4.653172       2364.35
-4.587434       3045.75
-4.521719       2724.75
-4.456030       2003.35
-4.390365       2332.25
-4.324724       2918.00
-4.259108       2824.65
-4.193517       2611.65
-4.127950       2962.90
-4.062407       3105.25
-3.996890       2492.50
-3.931396       1923.45
-3.865928       2349.00
-3.800483       2798.65
-3.735064       2427.15
-3.669669       3219.75
-3.604298       2474.20
-3.538952       1759.35
-3.473630       1689.05
-3.408333       2819.00
-3.343061       3480.20
-3.277813       3349.25
-3.212590       2655.20
-3.147391       3305.45
-3.082217       3377.60
-3.017067       2358.10
-2.951942       2295.95
-2.886841       2803.45
-2.821765       3199.65
-2.756713       3675.95
-2.691686       2569.50
-2.626684       2677.90
-2.561706       2476.00
-2.496753       3236.75
-2.431824       3513.15
-2.366920       2843.20
-2.302040       2690.35
-2.237185       3895.55
-2.172354       3925.90
-2.107548       3618.90
-2.042766       3486.70
-1.978009       4413.75
-1.913277       3901.00
-1.848569       4185.85
-1.783885       3966.05
-1.719226       3725.95
-1.654592       3395.10
-1.589982       3921.05
-1.525397       3157.70
-1.460836       3041.75
-1.396300       2606.25
-1.331788       3030.85
-1.267301       4186.10
-1.202839       4624.75
-1.138401       4269.45
-1.073987       4372.10
-1.009598       4530.45
-0.945234       4786.50
-0.880894       4969.95
-0.816579       6094.05
-0.752288       7485.35
-0.688022       7286.00
-0.623780       7483.20
-0.559563       8691.70
-0.495370      11906.60
-0.431202      15719.80
-0.367059      19775.90
-0.302940      28733.20
-0.238845      44224.45
-0.174775      65302.55
-0.110730      85938.25
-0.046709      99232.75
 0.017287     106806.90
 0.081259      96098.30
 0.145206      74186.85
 0.209129      51947.15
 0.273027      37151.40
 0.336901      27831.05
 0.400750      23251.45
 0.464574      22392.20
 0.528374      25488.30
 0.592149      29266.40
 0.655900      35159.85
 0.719627      41540.25
 0.783328      51668.45
 0.847006      62312.45
 0.910658      72678.45
 0.974286      82821.25
 1.037890      91884.55
 1.101469      99813.50
 1.165024     107362.75
 1.228554     112300.95
 1.292059     116307.05
 1.355540     117714.35
 1.418996     117378.95
 1.482428     119393.00
 1.545836     123169.15
 1.609218     126207.25
 1.672576     128535.20
 1.735910     132706.75
 1.799219     139845.40
 1.862504     146791.35
 1.925764     150671.90
 1.988999     151950.40
 2.052210     157068.20
 2.115397     162178.85
 2.178559     163704.55
 2.241696     164524.15
 2.304809     160205.70
 2.367897     162593.30
 2.430961     165075.35
 2.494000     163712.60
 2.557015     165604.10
 2.620005     167410.75
 2.682970     168380.25
 2.745911     170610.85
 2.808828     169544.25
 2.871720     176995.20
 2.934587     181649.25
 2.997430     185024.25
 3.060248     188075.30
 3.123042     195125.85
 3.185811     200330.40
 3.248556     202390.05
 3.311276     204214.45
 3.373971     208427.40
 3.436642     214990.25
 3.499289     225081.70
 3.561911     231325.70
 3.624508     236203.80
 3.687081     241636.85
 3.749630     241657.85
 3.812153     247393.30
 3.874653     246822.65
 3.937127     243403.05
 3.999578     240700.75
 4.062003     237122.20
 4.124404     236191.35
 4.186781     234136.35
 4.249133     228015.70
 4.311460     228402.75
 4.373763     226959.70
 4.436042     220588.95
 4.498295     213815.60
 4.560525     209168.95
 4.622729     205537.20
 4.684910     201798.75
 4.747065     197164.15
 4.809197     189455.65
 4.871303     186273.60
 4.933385     187795.90
 4.995443     181607.70
 5.057476     179687.20
 5.119484     173652.75
 5.181468     172301.30
 5.243427     167248.95
 5.305362     167943.95
 5.367272     165909.15
 5.429158     160818.00
 5.491019     158648.50
 5.552856     154604.10
 5.614668     149291.40
 5.676456     146576.65
 5.738219     144401.20
 5.799957     143103.80
 5.861671     140539.60
 5.923360     138742.20
 5.985025     134501.45
 6.046666     129493.05
 6.108281     128934.00
 6.169873     123169.00
 6.231439     121591.75
 6.292981     123440.90
 6.354499     120319.35
 6.415992     117456.00
 6.477461     113565.80
 6.538905     109785.80
 6.600324     106346.90
 6.661719     104787.30
 6.723089     103047.00
 6.784435     102033.75
 6.845756      99526.05
 6.907053      93907.65
 6.968325      91028.85
 7.029573      93135.25
 7.090796      91510.70
 7.151995      88780.75
 7.213169      85480.10
 7.274318      86406.75
 7.335443      86670.35
 7.396544      85036.40
 7.457619      80053.55
 7.518671      77733.25
 7.579698      74316.20
 7.640700      72807.10
 7.701677      72246.40
 7.762631      74165.30
 7.823559      69927.25
 7.884463      66242.00
 7.945343      66436.60
 8.006198      65195.40
 8.067028      64803.20
 8.127834      61047.35
 8.188616      60806.00
 8.249372      58412.20
 8.310105      58381.00
 8.370812      56631.75
 8.431496      56615.50
 8.492154      55629.45
 8.552788      54511.75
 8.613398      53015.40
 8.673983      48256.05
 8.734543      45851.60
 8.795079      48195.30
 8.855591      49280.85
 8.916078      48954.85
 8.976540      45255.00
 9.036978      46421.35
 9.097391      45584.35
 9.157780      43158.10
 9.218144      41004.35
 9.278484      39893.50
 9.338799      40044.15
 9.399089      39608.20
 9.459355      39787.90
 9.519597      41469.60
 9.579814      39587.75
 9.640006      36139.15
 9.700174      35767.15
 9.760317      36071.60
 9.820436      35472.70
 9.880530      35969.40
 9.940600      36372.00
 10.000645     35882.40
 10.060665     34275.95
 10.120661     33283.55
 10.180633     31457.60
 10.240580     32968.10
 10.300502     32396.40
 10.360400     30486.10
 10.420274     31520.75
 10.480122     30878.90
 10.539947     30836.85
 10.599746     28834.00
 10.659522     28833.95
 10.719272     29110.90
 10.778998     27505.55
 10.838700     27361.95
 10.898377     27559.25
 10.958029     27274.70
 11.017657     27003.30
 11.077261     28255.90
 11.136839     28357.45
 11.196394     26279.95
 11.255923     25793.25
 11.315429     25489.30
 11.374909     24844.40
 11.434366     24849.35
 11.493797     24849.40
 11.553204     25170.50
 11.612587     24519.50
